wavelength	transmission
6700	-0.005
6710	-0.005
6720	-0.005
6730	-0.005
6740	-0.005
6750	-0.005
6760	-0.01
6770	-0.005
6780	-0.005
6790	-0.005
6800	-0.01
6810	-0.005
6820	-0.005
6830	-0.005
6840	-0.005
6850	-0.005
6860	-0.005
6870	-0.005
6880	-0.005
6890	-0.005
6900	-0.005
6910	-0.005
6920	0
6930	0
6940	0
6950	0.01
6960	0.02
6970	0.045
6980	0.08
6990	0.15
7000	0.245
7010	0.39
7020	0.6
7030	0.89
7040	1.285
7050	1.795
7060	2.445
7070	3.255
7080	4.23
7090	5.39
7100	6.77
7110	8.31
7120	10.045
7130	11.965
7140	14.075
7150	16.315
7160	18.745
7170	21.295
7180	23.9
7190	26.68
7200	29.54
7210	32.42
7220	35.3
7230	38.23
7240	41.195
7250	44.01
7260	46.81
7270	49.55
7280	52.295
7290	54.96
7300	57.475
7310	60.025
7320	62.305
7330	64.635
7340	66.705
7350	68.77
7360	70.72
7370	72.545
7380	74.25
7390	75.99
7400	77.355
7410	78.865
7420	80.21
7430	81.505
7440	82.7
7450	83.71
7460	84.8
7470	85.705
7480	86.655
7490	87.385
7500	87.985
7510	88.81
7520	89.505
7530	90.125
7540	90.49
7550	90.905
7560	91.39
7570	92.08
7580	92.275
7590	92.705
7600	92.98
7610	93.245
7620	93.615
7630	93.735
7640	93.925
7650	94.265
7660	94.445
7670	94.485
7680	94.865
7690	94.865
7700	95.085
7710	95.13
7720	95.375
7730	95.48
7740	95.49
7750	95.55
7760	95.525
7770	95.795
7780	95.84
7790	95.835
7800	95.84
7810	95.88
7820	95.9
7830	95.845
7840	96.005
7850	95.945
7860	95.82
7870	96.01
7880	96.09
7890	96.07
7900	95.975
7910	96.105
7920	96.05
7930	96.125
7940	96.19
7950	96
7960	95.93
7970	96.075
7980	96.155
7990	95.985
8000	96.11
8010	95.895
8020	96.07
8030	96.015
8040	95.805
8050	95.745
8060	95.84
8070	95.905
8080	95.935
8090	95.6
8100	95.825
8110	95.63
8120	95.76
8130	95.6
8140	95.705
8150	95.785
8160	95.69
8170	95.565
8180	95.565
8190	95.29
8200	95.43
8210	95.435
8220	95.295
8230	95.445
8240	95.375
8250	95.3
8260	95.21
8270	95.345
8280	95.27
8290	95.075
8300	95.04
8310	94.995
8320	95.03
8330	94.925
8340	94.83
8350	94.595
8360	94.76
8370	94.725
8380	94.54
8390	94.725
8400	94.565
8410	94.475
8420	94.425
8430	94.45
8440	94.14
8450	94.23
8460	94.175
8470	94.115
8480	93.955
8490	94.015
8500	93.54
8510	93.795
8520	93.68
8530	93.67
8540	93.37
8550	93.81
8560	93.41
8570	93.875
8580	93.38
8590	93.11
8600	93.04
8610	92.305
8620	92.205
8630	92.16
8640	92.145
8650	92.05
8660	91.9
8670	91.83
8680	91.735
8690	91.64
8700	91.53
8710	91.405
8720	91.34
8730	91.22
8740	91.11
8750	91.085
8760	90.96
8770	90.85
8780	90.78
8790	90.62
8800	90.57
8810	90.47
8820	90.375
8830	90.285
8840	90.245
8850	90.095
8860	90.02
8870	89.93
8880	89.8
8890	89.675
8900	89.58
8910	89.465
8920	89.34
8930	89.225
8940	89.125
8950	89
8960	88.83
8970	88.775
8980	88.585
8990	88.475
9000	88.39
9010	88.21
9020	88.135
9030	88.005
9040	87.9
9050	87.8
9060	87.665
9070	87.49
9080	87.385
9090	87.285
9100	87.135
9110	86.98
9120	86.85
9130	86.68
9140	86.54
9150	86.41
9160	86.26
9170	86.09
9180	85.96
9190	85.82
9200	85.685
9210	85.535
9220	85.375
9230	85.2
9240	85.07
9250	84.88
9260	84.73
9270	84.53
9280	84.39
9290	84.2
9300	84.03
9310	83.9
9320	83.67
9330	83.515
9340	83.355
9350	83.165
9360	82.94
9370	82.755
9380	82.585
9390	82.465
9400	82.24
9410	82.095
9420	81.87
9430	81.7
9440	81.505
9450	81.315
9460	81.06
9470	80.895
9480	80.715
9490	80.425
9500	80.235
9510	80.02
9520	79.775
9530	79.585
9540	79.34
9550	79.08
9560	78.84
9570	78.6
9580	78.365
9590	78.11
9600	77.86
9610	77.645
9620	77.36
9630	77.185
9640	76.925
9650	76.63
9660	76.405
9670	76.16
9680	75.925
9690	75.615
9700	75.325
9710	75.08
9720	74.815
9730	74.56
9740	74.3
9750	74.01
9760	73.685
9770	73.44
9780	73.09
9790	72.815
9800	72.53
9810	72.225
9820	71.945
9830	71.6
9840	71.26
9850	70.98
9860	70.675
9870	70.335
9880	70.005
9890	69.675
9900	69.34
9910	69.01
9920	68.68
9930	68.295
9940	67.895
9950	67.54
9960	67.23
9970	66.835
9980	66.465
9990	66.15
10000	65.77
10010	65.38
10020	65.005
10030	64.62
10040	64.24
10050	63.88
10060	63.42
10070	63.08
10080	62.705
10090	62.325
10100	61.895
10110	61.48
10120	61.065
10130	60.635
10140	60.25
10150	59.79
10160	59.4
10170	58.9
10180	58.505
10190	58.03
10200	57.62
10210	57.185
10220	56.695
10230	56.275
10240	55.815
10250	55.38
10260	54.89
10270	54.425
10280	53.955
10290	53.485
10300	53.005
10310	52.53
10320	52.065
10330	51.57
10340	51.08
10350	50.6
10360	50.12
10370	49.615
10380	49.12
10390	48.635
10400	48.105
10410	47.595
10420	47.13
10430	46.65
10440	46.09
10450	45.655
10460	45.15
10470	44.615
10480	44.175
10490	43.615
10500	43.05
10510	42.555
10520	42.095
10530	41.58
10540	41.085
10550	40.54
10560	40.055
10570	39.565
10580	38.985
10590	38.51
10600	37.95
10610	37.53
10620	36.985
10630	36.465
10640	35.955
10650	35.435
10660	34.945
10670	34.39
10680	33.83
10690	33.31
10700	32.825
10710	32.395
10720	31.85
10730	31.355
10740	30.84
10750	30.36
10760	29.85
10770	29.31
10780	28.855
10790	28.43
10800	27.865
10810	27.36
10820	26.92
10830	26.47
10840	26.01
10850	25.51
10860	25.04
10870	24.555
10880	24.095
10890	23.67
10900	23.215
10910	22.73
10920	22.325
10930	21.91
10940	21.44
10950	21.02
10960	20.555
10970	20.145
10980	19.69
10990	19.325
11000	18.915
11010	18.435
11020	18.115
11030	17.69
11040	17.245
11050	16.95
11060	16.495
11070	16.14
11080	15.73
11090	15.415
11100	15.05
11110	14.64
11120	14.35
11130	13.935
11140	13.615
11150	13.275
11160	12.975
11170	12.605
11180	12.285
11190	11.97
11200	11.72
11210	11.425
11220	11.11
11230	10.775
11240	10.51
11250	10.24
11260	9.995
11270	9.705
11280	9.42
11290	9.145
11300	8.815
11310	8.765
11320	8.43
11330	8.11
11340	7.85
11350	7.65
11360	7.405
11370	7.3
11380	7.08
11390	6.82
11400	6.61
11410	6.415
11420	6.225
11430	6.01
11440	5.83
11450	5.695
11460	5.59
11470	5.36
11480	5.08
11490	5.12
11500	4.835
11510	4.7
11520	4.68
11530	4.39
11540	4.275
11550	4.175
11560	3.97
11570	3.795
11580	3.65
11590	3.52
11600	3.37
11610	3.27
11620	3.18
11630	3.09
11640	2.945
11650	2.91
11660	2.795
11670	2.68
11680	2.615
11690	2.485
11700	2.305
11710	2.245
11720	2.275
11730	2.165
11740	2.14
11750	2.025
11760	1.945
11770	1.88
11780	1.785
11790	1.755
11800	1.69
11810	1.61
11820	1.595
11830	1.51
11840	1.44
11850	1.395
11860	1.28
11870	1.25
11880	1.155
11890	1.01
11900	0.99
11910	1.08
11920	1.005
11930	0.965
11940	1.02
11950	0.95
11960	0.93
11970	0.865
11980	0.845
11990	0.745
12000	0.88
